# extract -m O2 -x 5000,25000 -o HITRAN2012_05000-25000_O2 /Users/yuka/data/HITRAN2012/07_hit12.par
#
# molecule: O2
# temperature:   296.00 K
# pressure:     1013.25 mb
# number of lines:                       2256
# min, max line strength:            5.04e-32      8.8e-24
# format: vSEan
# min, max airbroad.  widths:           0.022        0.066
# min, max selfbroad. widths:           0.027        0.059
# min, max temp. exponent:              0.620        1.060
#   position    strength      energy airWidth    Tdep
#       cm-1   cm-1/cm-2        cm-1     cm-1        
 6221.649251   6.337e-32  2095.24290  0.04160  0.8100
 6233.246880   9.198e-32  1990.25180  0.04380  0.8300
 6244.825133   1.236e-31  1896.56380  0.04590  0.8300
 6256.383153   1.523e-31  1814.19390  0.04780  0.8400
 6258.757122   5.081e-32  2340.87400  0.03560  0.8000
 6260.566768   5.772e-32  2339.06430  0.03560  0.8000
 6264.755657   8.515e-32  2213.34780  0.03800  0.8000
 6266.583345   9.784e-32  2211.52010  0.03800  0.8000
 6267.920178   1.698e-31  1743.15520  0.04960  0.8400
 6270.726380   1.335e-31  2097.08890  0.04040  0.8100
 6272.572403   1.555e-31  2095.24290  0.04040  0.8100
 6276.669360   1.951e-31  1992.11660  0.04270  0.8300
 6278.534119   2.312e-31  1990.25180  0.04270  0.8300
 6279.435778   1.665e-31  1683.45840  0.05130  0.8400
 6282.584565   2.646e-31  1898.44780  0.04490  0.8300
 6284.468616   3.205e-31  1896.56380  0.04490  0.8300
 6288.471857   3.307e-31  1816.09810  0.04690  0.8500
 6290.376020   4.123e-31  1814.19390  0.04690  0.8500
 6290.930530   1.349e-31  1635.11130  0.05330  0.8400
 6294.330991   3.767e-31  1745.08080  0.04870  0.8400
 6296.256548   4.884e-31  1743.15520  0.04870  0.8400
 6300.161623   3.832e-31  1685.40760  0.05040  0.8400
 6302.110752   5.261e-31  1683.45840  0.05040  0.8400
 6302.408504   7.378e-32  1598.11610  0.05550  0.8400
 6305.963305   3.342e-31  1637.08820  0.05230  0.8400
 6307.940191   5.025e-31  1635.11130  0.05230  0.8400
 6311.735487   2.242e-31  1600.13050  0.05430  0.8400
 6313.749910   3.992e-31  1598.11610  0.05430  0.8400
 6317.477518   7.058e-32  1574.54060  0.05680  0.8400
 6319.563148   1.928e-31  1572.45490  0.05680  0.8400
 6323.303516   6.618e-32  2479.64670  0.03230  0.7800
 6323.729309   1.197e-31  2340.87400  0.03450  0.8000
 6324.115830   2.034e-31  2213.34780  0.03680  0.8000
 6324.464242   3.243e-31  2097.08890  0.03920  0.8100
 6324.775598   4.842e-31  1992.11660  0.04160  0.8100
 6325.050845   6.749e-31  1898.44780  0.04380  0.8300
 6325.290828   8.749e-31  1816.09810  0.04590  0.8300
 6325.496283   1.048e-30  1745.08080  0.04780  0.8400
 6325.667847   1.149e-30  1685.40760  0.04960  0.8400
 6325.806051   1.131e-30  1637.08820  0.05130  0.8400
 6325.911326   9.611e-31  1600.13050  0.05330  0.8400
 6325.943518   5.832e-32  2211.52010  0.03680  0.8000
 6325.984001   6.184e-31  1574.54060  0.05550  0.8400
 6326.310266   9.426e-32  2095.24290  0.03920  0.8100
 6326.609032   7.153e-32  2094.94410  0.03920  0.8100
 6326.640356   1.431e-31  1990.25180  0.04160  0.8100
 6326.901725   1.052e-31  1989.99040  0.04160  0.8100
 6326.934896   2.037e-31  1896.56380  0.04380  0.8300
 6327.157945   1.438e-31  1896.34070  0.04380  0.8300
 6327.194991   2.714e-31  1814.19390  0.04590  0.8300
 6327.378376   1.819e-31  1814.01050  0.04590  0.8300
 6327.421840   3.376e-31  1743.15520  0.04780  0.8400
 6327.563493   2.108e-31  1743.01360  0.04780  0.8400
 6327.616976   3.906e-31  1683.45840  0.04960  0.8400
 6327.713470   2.206e-31  1683.36190  0.04960  0.8400
 6327.782937   4.188e-31  1635.11130  0.05130  0.8400
 6327.827943   2.025e-31  1635.06630  0.05130  0.8400
 6327.905337   1.527e-31  1598.13650  0.05330  0.8400
 6327.925749   4.149e-31  1598.11610  0.05330  0.8400
 6327.940382   7.671e-32  1572.58420  0.05550  0.8400
 6328.069631   3.861e-31  1572.45490  0.05550  0.8400
 6331.695495   6.822e-31  1560.32260  0.05680  0.8400
 6333.580610   1.758e-31  1558.43750  0.05680  0.8400
 6337.325407   7.965e-31  1574.54060  0.05430  0.8400
 6339.281788   4.150e-31  1572.58420  0.05430  0.8400
 6342.087093   3.520e-31  1558.43750  0.05550  0.8400
 6342.920986   8.760e-31  1600.13050  0.05230  0.8400
 6344.914997   5.688e-31  1598.13650  0.05230  0.8400
 6348.481026   8.831e-31  1637.08820  0.05040  0.8400
 6350.502918   6.399e-31  1635.06630  0.05040  0.8400
 6353.457627   4.313e-31  1572.58420  0.05330  0.8400
 6354.004217   8.200e-31  1685.40760  0.04870  0.8400
 6356.049841   6.347e-31  1683.36190  0.04870  0.8400
 6359.489150   7.055e-31  1745.08080  0.04690  0.8500
 6361.556359   5.707e-31  1743.01360  0.04690  0.8500
 6364.757743   4.740e-31  1598.13650  0.05130  0.8400
 6364.934311   5.652e-31  1816.09810  0.04490  0.8300
 6367.021859   4.718e-31  1814.01050  0.04490  0.8300
 6370.338084   4.229e-31  1898.44780  0.04270  0.8300
 6372.445184   3.615e-31  1896.34070  0.04270  0.8300
 6375.698750   2.963e-31  1992.11660  0.04040  0.8100
 6376.009142   4.751e-31  1635.06630  0.04960  0.8400
 6377.824878   2.581e-31  1989.99040  0.04040  0.8100
 6381.014485   1.948e-31  2097.08890  0.03800  0.8000
 6383.159275   1.722e-31  2094.94410  0.03800  0.8000
 6386.283359   1.204e-31  2213.34780  0.03560  0.8000
 6387.215133   4.387e-31  1683.36190  0.04780  0.8400
 6388.446550   1.077e-31  2211.18460  0.03560  0.8000
 6391.503334   6.995e-32  2340.87400  0.03330  0.7900
 6393.684735   6.324e-32  2338.69260  0.03330  0.7900
 6398.375330   3.757e-31  1743.01360  0.04590  0.8300
 6409.488138   2.999e-31  1814.01050  0.04380  0.8300
 6420.551421   2.237e-31  1896.34070  0.04160  0.8100
 6431.562740   1.564e-31  1989.99040  0.03920  0.8100
 6442.519448   1.026e-31  2094.94410  0.03680  0.8000
 6453.418737   6.332e-32  2211.18460  0.03450  0.8000
 7571.882912   5.871e-32  1803.17380  0.03310  0.7500
 7591.338418   1.429e-31  1606.34830  0.03450  0.7600
 7610.667957   3.275e-31  1420.76310  0.03610  0.7800
 7620.245922   9.200e-32  2961.46770  0.02860  0.7700
 7629.870300   7.063e-31  1246.44870  0.03770  0.7800
 7633.899343   1.974e-31  2789.08210  0.03030  0.7800
 7647.399661   3.988e-31  2627.86900  0.03230  0.7800
 7648.944108   1.432e-30  1083.43320  0.03930  0.7900
 7660.746566   7.571e-31  2477.85490  0.03450  0.8000
 7664.726287   2.735e-29  1803.17380  0.02680  0.7500
 7667.887942   2.724e-30   931.74320  0.04090  0.8000
 7671.567083   5.530e-32  1801.10240  0.02540  0.7400
 7673.939628   1.349e-30  2339.06430  0.03680  0.8000
 7678.189540   8.593e-32  1704.13450  0.02590  0.7500
 7678.636022   6.677e-29  1606.34830  0.02850  0.7600
 7684.778550   1.317e-31  1609.81700  0.02650  0.7500
 7686.700261   4.853e-30   791.40320  0.04250  1.0600
 7686.978310   2.252e-30  2211.52010  0.03920  0.8100
 7691.334093   1.990e-31  1518.15360  0.02720  0.7600
 7692.404571   1.528e-28  1420.76310  0.03050  0.7700
 7693.691687   8.329e-32  3146.71950  0.02650  0.7500
 7695.413709   9.123e-32  3144.99750  0.02650  0.7500
 7697.856145   2.965e-31  1429.14770  0.02790  0.7600
 7698.765966   6.678e-32  1379.73530  0.02860  0.7700
 7699.861972   3.512e-30  2095.24290  0.04160  0.8100
 7701.996270   1.899e-31  2963.20700  0.02790  0.7600
 7703.735579   2.092e-31  2961.46770  0.02790  0.7600
 7704.344675   4.355e-31  1342.80270  0.02860  0.7700
 7705.379431   8.080e-30   662.43590  0.04390  0.8100
 7705.395147   9.780e-32  1293.75980  0.02940  0.7800
 7706.031691   3.306e-28  1246.44870  0.03240  0.7800
 7710.133028   4.082e-31  2790.83880  0.02940  0.7800
 7710.799647   6.307e-31  1259.12210  0.02940  0.7800
 7711.889719   4.523e-31  2789.08210  0.02940  0.7800
 7711.990081   1.411e-31  1210.52400  0.03030  0.7800
 7712.589889   5.096e-30  1990.25180  0.04380  0.8300
 7717.221020   9.002e-31  1178.10890  0.03030  0.7800
 7718.102749   8.262e-31  2629.64320  0.03130  0.7800
 7718.550706   2.006e-31  1130.03120  0.03130  0.7800
 7719.517029   6.741e-28  1083.43320  0.03450  0.7800
 7719.876938   9.219e-31  2627.86900  0.03130  0.7800
 7723.608749   1.266e-30  1099.76630  0.03130  0.7800
 7723.923733   1.253e-29   544.86220  0.04530  0.8700
 7725.076959   2.809e-31  1052.28460  0.03230  0.7800
 7725.161277   6.844e-30  1896.56380  0.04590  0.8300
 7725.906090   1.573e-30  2479.64670  0.03330  0.7900
 7727.697919   1.769e-30  2477.85490  0.03330  0.7900
 7729.962780   1.756e-30  1024.09730  0.03230  0.7800
 7731.568770   3.875e-31   977.28720  0.03330  0.7900
 7732.860129   1.287e-27   931.74320  0.03650  0.7900
 7733.543581   2.811e-30  2340.87400  0.03560  0.8000
 7735.353227   3.193e-30  2339.06430  0.03560  0.8000
 7736.283058   2.398e-30   951.10490  0.03330  0.7900
 7737.575337   8.434e-30  1814.19390  0.04780  0.8400
 7738.026063   5.262e-31   905.04200  0.03450  0.8000
 7741.015625   4.712e-30  2213.34780  0.03800  0.8000
 7742.331379   1.799e-29   438.70100  0.04660  0.6200
 7742.569519   3.226e-30   880.79170  0.03450  0.8000
 7742.843312   5.413e-30  2211.52010  0.03800  0.8000
 7744.448759   7.036e-31   835.55180  0.03560  0.8000
 7746.060434   2.305e-27   791.40320  0.03860  0.8000
 7748.322502   7.386e-30  2097.08890  0.04040  0.8100
 7748.822097   4.276e-30   813.16040  0.03560  0.8000
 7749.831359   9.399e-30  1743.15520  0.04960  0.8400
 7750.123197   2.151e-29  2012.89140  0.02450  0.7300
 7750.168526   8.604e-30  2095.24290  0.04040  0.8100
 7750.836772   9.261e-31   768.81940  0.03680  0.8000
 7751.806837   2.347e-29  2011.20780  0.02450  0.7300
 7755.040720   5.579e-30   748.21380  0.03680  0.8000
 7755.464374   1.079e-29  1992.11660  0.04270  0.8300
 7757.190015   1.199e-30   704.84740  0.03800  0.8000
 7757.329132   1.279e-29  1990.25180  0.04270  0.8300
 7758.635763   5.585e-29  1804.87460  0.02600  0.7400
 7758.779565   7.214e-32  1902.41670  0.02450  0.7300
 7759.117293   3.884e-27   662.43590  0.04060  0.8100
 7760.336532   6.067e-29  1803.17380  0.02600  0.7400
 7760.479278   7.837e-32  1900.71700  0.02450  0.7300
 7760.600531   2.377e-29   343.96940  0.04790  0.8500
 7760.918373   5.485e-32  1802.59200  0.03170  0.7400
 7761.225310   7.166e-30   685.95420  0.03800  0.8000
 7761.928955   9.215e-30  1683.45840  0.05130  0.8400
 7762.441282   1.464e-29  1898.44780  0.04490  0.8300
 7762.817979   1.137e-31  1802.81020  0.02490  0.7400
 7763.508391   1.528e-30   643.63820  0.03920  0.8100
 7764.325333   1.773e-29  1896.56380  0.04490  0.8300
 7764.525753   1.238e-31  1801.10240  0.02490  0.7400
 7766.819120   1.767e-31  1705.85040  0.02540  0.7400
 7766.990507   1.361e-28  1608.06620  0.02760  0.7500
 7767.375786   9.057e-30   626.38400  0.03920  0.8100
 7768.534971   1.928e-31  1704.13450  0.02540  0.7400
 7768.708475   1.486e-28  1606.34830  0.02760  0.7500
 7769.253154   1.830e-29  1816.09810  0.04690  0.8500
 7769.255434   1.339e-31  1605.80130  0.03310  0.7500
 7769.791805   1.915e-30   585.19430  0.04040  0.8100
 7770.783084   2.710e-31  1611.54100  0.02590  0.7500
 7771.121860   6.143e-32  1561.61730  0.02650  0.7500
 7771.157317   2.281e-29  1814.19390  0.04690  0.8500
 7772.029971   6.067e-27   544.86220  0.04240  0.8100
 7772.507025   2.963e-31  1609.81700  0.02590  0.7500
 7772.847325   6.730e-32  1559.89180  0.02650  0.7500
 7773.492062   1.126e-29   569.50550  0.04040  0.8100
 7773.868732   7.464e-30  1635.11130  0.05330  0.8400
 7774.709959   4.096e-31  1519.88560  0.02650  0.7500
 7775.115906   9.267e-32  1470.18100  0.02720  0.7600
 7775.188271   3.139e-28  1422.49840  0.02940  0.7600
 7775.899802   2.084e-29  1745.08080  0.04870  0.8400
 7776.040154   2.358e-30   529.51810  0.04160  0.8100
 7776.442007   4.491e-31  1518.15360  0.02650  0.7500
 7776.849734   1.018e-31  1468.44720  0.02720  0.7600
 7776.923520   3.435e-28  1420.76310  0.02940  0.7600
 7777.435478   3.082e-31  1420.25120  0.03450  0.7600
 7777.825359   2.701e-29  1743.15520  0.04870  0.8400
 7778.599828   6.107e-31  1430.88780  0.02720  0.7600
 7778.729357   2.855e-29   260.68240  0.04930  0.7400
 7779.072220   1.378e-31  1381.47760  0.02790  0.7600
 7779.574050   1.377e-29   515.32080  0.04160  0.8100
 7780.340002   6.713e-31  1429.14770  0.02720  0.7600
 7780.814430   1.518e-31  1379.73530  0.02790  0.7600
 7782.253333   2.853e-30   476.61150  0.04270  0.8300
 7782.380926   2.120e-29  1685.40760  0.05040  0.8400
 7782.389224   7.715e-32  3341.34610  0.02490  0.7400
 7782.452769   8.977e-31  1344.55110  0.02790  0.7600
 7782.990864   2.019e-31  1295.51040  0.02860  0.7700
 7783.229783   6.805e-28  1248.20130  0.03140  0.7700
 7784.201087   9.896e-31  1342.80270  0.02790  0.7600
 7784.330055   2.909e-29  1683.45840  0.05040  0.8400
 7784.741480   2.231e-31  1293.75980  0.02860  0.7700
 7784.797658   8.860e-27   438.70100  0.04430  0.8300
 7784.982411   7.511e-28  1246.44870  0.03140  0.7700
 7785.402178   1.875e-31  3146.71950  0.02590  0.7500
 7785.459219   6.681e-31  1245.97190  0.03610  0.7800
 7785.621655   1.655e-29   463.83210  0.04270  0.8300
 7785.654784   4.080e-30  1598.11610  0.05550  0.8400
 7786.268852   1.301e-30  1260.87860  0.02860  0.7700
 7786.871898   2.916e-31  1212.28310  0.02940  0.7800
 7787.124200   5.131e-32  3144.99750  0.02590  0.7500
 7788.025337   1.438e-30  1259.12210  0.02860  0.7700
 7788.230074   4.303e-31  2963.20700  0.02720  0.7600
 7788.431236   3.390e-30   426.47680  0.04380  0.8300
 7788.630944   3.232e-31  1210.52400  0.02940  0.7800
 7788.696114   1.848e-29  1637.08820  0.05230  0.8400
 7789.969382   1.184e-31  2961.46770  0.02720  0.7600
 7790.048145   1.858e-30  1179.87360  0.02940  0.7800
 7790.483190   9.995e-32  2960.95390  0.02720  0.7600
 7790.672999   2.778e-29  1635.11130  0.05230  0.8400
 7790.715374   4.149e-31  1131.79870  0.03030  0.7800
 7790.874833   9.315e-31  2790.83880  0.02860  0.7700
 7791.115656   1.387e-27  1085.20330  0.03340  0.7800
 7791.634783   1.953e-29   415.04130  0.04380  0.8300
 7791.812820   2.061e-30  1178.10890  0.02940  0.7800
 7792.482878   4.615e-31  1130.03120  0.03030  0.7800
 7792.631524   2.578e-31  2789.08210  0.02860  0.7700
 7792.885779   1.541e-27  1083.43320  0.03340  0.7800
 7793.110135   2.151e-31  2788.60350  0.02860  0.7700
 7793.327255   1.363e-30  1082.99170  0.03770  0.7800
 7793.338240   1.901e-30  2629.64320  0.03030  0.7800
 7793.790708   2.617e-30  1101.53920  0.03030  0.7800
 7794.521341   5.816e-31  1054.06060  0.03130  0.7800
 7794.573754   3.951e-30   379.11590  0.04490  0.8300
 7794.844845   1.240e-29  1600.13050  0.05430  0.8400
 7795.112429   5.297e-31  2627.86900  0.03030  0.7800
 7795.555666   4.361e-31  2627.42580  0.03030  0.7800
 7795.563598   2.913e-30  1099.76630  0.03030  0.7800
 7795.621947   3.654e-30  2479.64670  0.03230  0.7800
 7796.297332   6.493e-31  1052.28460  0.03130  0.7800
 7796.716124   3.049e-29   188.85310  0.05080  0.8000
 7796.859268   2.206e-29  1598.11610  0.05430  0.8400
 7797.413776   1.026e-30  2477.85490  0.03230  0.7800
 7797.419502   1.191e-26   343.96940  0.04600  0.8300
 7797.496595   3.631e-30  1025.87850  0.03130  0.7800
 7797.613337   2.263e-29   368.95010  0.04490  0.8300
 7797.727475   6.608e-30  2340.87400  0.03450  0.8000
 7797.821414   8.320e-31  2477.44730  0.03230  0.7800
 7798.289839   8.031e-31   979.07170  0.03230  0.7800
 7798.846390   2.651e-27   933.53090  0.03550  0.7900
 7799.277729   4.057e-30  1024.09730  0.03130  0.7800
 7799.537120   1.874e-30  2339.06430  0.03450  0.8000
 7799.656219   1.123e-29  2213.34780  0.03680  0.8000
 7799.908876   1.492e-30  2338.69260  0.03450  0.8000
 7800.074352   9.001e-31   977.28720  0.03230  0.7800
 7800.634154   2.985e-27   931.74320  0.03550  0.7900
 7800.680780   4.514e-30   334.53050  0.04590  0.8300
 7800.826489   3.903e-30  1574.54060  0.05680  0.8400
 7801.040067   2.612e-30   931.33730  0.03930  0.7900
 7801.165856   4.966e-30   952.89430  0.03230  0.7800
 7801.409450   1.791e-29  2097.08890  0.03920  0.8100
 7801.483906   3.221e-30  2211.52010  0.03680  0.8000
 7801.819410   2.509e-30  2211.18460  0.03680  0.8000
 7802.020905   1.092e-30   906.83510  0.03330  0.7900
 7802.912119   1.065e-29  1572.45490  0.05680  0.8400
 7802.955266   5.569e-30   951.10490  0.03230  0.7800
 7802.988319   2.675e-29  1992.11660  0.04160  0.8100
 7803.255474   5.206e-30  2095.24290  0.03920  0.8100
 7803.554240   3.951e-30  2094.94410  0.03920  0.8100
 7803.557218   2.570e-29   325.56040  0.04590  0.8300
 7803.813978   1.229e-30   905.04200  0.03330  0.7900
 7804.393854   3.729e-29  1898.44780  0.04380  0.8300
 7804.798534   6.690e-30   882.58940  0.03330  0.7900
 7804.853077   7.905e-30  1990.25180  0.04160  0.8100
 7805.114446   5.811e-30  1989.99040  0.04160  0.8100
 7805.626971   4.835e-29  1816.09810  0.04590  0.8300
 7805.714569   1.463e-30   837.35350  0.03450  0.8000
 7806.277905   1.125e-29  1896.56380  0.04380  0.8300
 7806.422378   4.783e-27   793.20870  0.03760  0.8000
 7806.500954   7.948e-30  1896.34070  0.04380  0.8300
 7806.596254   7.536e-30   880.79170  0.03330  0.7900
 7806.688467   5.793e-29  1745.08080  0.04780  0.8400
 7806.752207   5.050e-30   292.72250  0.04690  0.8500
 7807.516244   1.654e-30   835.55180  0.03450  0.8000
 7807.531134   1.500e-29  1814.19390  0.04590  0.8300
 7807.579029   6.350e-29  1685.40760  0.04960  0.8400
 7807.714519   1.005e-29  1814.01050  0.04590  0.8300
 7808.227962   5.425e-27   791.40320  0.03760  0.8000
 7808.299228   6.254e-29  1637.08820  0.05130  0.8400
 7808.394667   8.878e-30   814.96650  0.03450  0.8000
 7808.598019   4.699e-30   791.03310  0.04090  0.8000
 7808.614024   1.865e-29  1743.15520  0.04780  0.8400
 7808.755677   1.165e-29  1743.01360  0.04780  0.8400
 7808.849528   5.313e-29  1600.13050  0.05330  0.8400
 7809.230282   3.419e-29  1574.54060  0.05550  0.8400
 7809.370858   1.928e-30   770.62970  0.03560  0.8000
 7809.466332   2.860e-29   284.87380  0.04690  0.8500
 7809.528158   2.158e-29  1683.45840  0.04960  0.8400
 7809.624652   1.220e-29  1683.36190  0.04960  0.8400
 7809.894649   1.473e-26   260.68240  0.04770  0.8400
 7810.200737   1.005e-29   813.16040  0.03450  0.8000
 7810.276113   2.314e-29  1635.11130  0.05130  0.8400
 7810.321120   1.120e-29  1635.06630  0.05130  0.8400
 7810.843539   8.445e-30  1598.13650  0.05330  0.8400
 7810.863951   2.292e-29  1598.11610  0.05330  0.8400
 7811.181181   2.191e-30   768.81940  0.03560  0.8000
 7811.186663   4.242e-30  1572.58420  0.05550  0.8400
 7811.315912   2.133e-29  1572.45490  0.05550  0.8400
 7811.954287   1.160e-29   750.02830  0.03560  0.8000
 7812.787935   5.522e-30   253.69340  0.04780  0.8400
 7812.989789   2.502e-30   706.66640  0.03680  0.8000
 7813.768752   1.320e-29   748.21380  0.03560  0.8000
 7813.843902   8.057e-27   664.25950  0.03960  0.8000
 7814.559447   2.772e-29   128.49200  0.05260  0.8600
 7814.808815   2.859e-30   704.84740  0.03680  0.8000
 7815.044466   3.771e-29  1560.32260  0.05680  0.8400
 7815.340588   3.112e-29   246.89180  0.04780  0.8400
 7815.477420   1.493e-29   687.77710  0.03680  0.8000
 7815.667537   9.245e-27   662.43590  0.03960  0.8000
 7816.001358   7.918e-30   662.10210  0.04250  1.0600
 7816.571377   3.195e-30   645.46600  0.03800  0.8000
 7816.929581   9.723e-30  1558.43750  0.05680  0.8400
 7817.300330   1.708e-29   685.95420  0.03680  0.8000
 7818.399167   3.672e-30   643.63820  0.03800  0.8000
 7818.787875   5.891e-30   217.44460  0.04870  0.8400
 7818.964089   1.891e-29   628.21540  0.03800  0.8000
 7820.115631   4.012e-30   587.03100  0.03920  0.8100
 7820.434765   4.402e-29  1574.54060  0.05430  0.8400
 7820.795499   2.176e-29   626.38400  0.03800  0.8000
 7821.111136   1.268e-26   546.70420  0.04150  0.8100
 7821.179903   3.305e-29   211.61580  0.04870  0.8400
 7821.952254   4.643e-30   585.19430  0.03920  0.8100
 7822.222347   1.637e-26   188.85310  0.04950  0.8400
 7822.391147   2.294e-29  1572.58420  0.05430  0.8400
 7822.414306   2.357e-29   571.34550  0.03920  0.8100
 7822.953124   1.473e-26   544.86220  0.04150  0.8100
 7823.250208   1.247e-29   544.56510  0.04390  0.8100
 7823.622552   4.955e-30   531.36360  0.04040  0.8100
